##TITLE=EP142
##DATA TYPE=INFRARED SPECTRUM
##XUNITS=1/CM
##YUNITS=%T
399.264912  	96.770890 
401.193728  	96.252448 
403.122544  	102.271362 
405.051360  	99.017651 
406.980176  	96.332457 
408.908992  	97.573896 
410.837808  	95.049367 
412.766624  	94.764624 
414.695440  	94.760776 
416.624256  	91.265100 
418.553072  	90.922282 
420.481888  	88.869687 
422.410704  	88.616111 
424.339520  	88.041244 
426.268336  	88.964124 
428.197152  	89.288979 
430.125968  	89.606882 
432.054784  	88.832651 
433.983600  	86.028747 
435.912416  	85.443388 
437.841232  	86.062169 
439.770048  	85.686832 
441.698864  	86.336631 
443.627680  	86.229696 
445.556496  	84.795402 
447.485312  	85.616977 
449.414128  	86.552568 
451.342944  	86.897061 
453.271760  	87.902453 
455.200576  	88.839793 
457.129392  	89.462389 
459.058208  	90.859037 
460.987024  	90.916419 
462.915840  	91.053770 
464.844656  	92.833478 
466.773472  	93.340033 
468.702288  	93.300534 
470.631104  	93.397982 
472.559920  	92.912840 
474.488736  	92.678027 
476.417552  	93.526080 
478.346368  	94.164196 
480.275184  	93.777760 
482.204000  	93.098241 
484.132816  	92.546028 
486.061632  	91.827665 
487.990448  	91.906785 
489.919264  	92.161980 
491.848080  	91.886213 
493.776896  	91.748438 
495.705712  	92.050091 
497.634528  	92.502433 
499.563344  	91.998312 
501.492160  	91.093505 
503.420976  	91.073590 
505.349792  	90.866566 
507.278608  	90.336939 
509.207424  	89.938158 
511.136240  	89.374548 
513.065056  	88.961204 
514.993872  	88.481717 
516.922688  	88.020932 
518.851504  	87.521644 
520.780320  	87.702894 
522.709136  	87.750005 
524.637952  	87.059865 
526.566768  	86.270547 
528.495584  	86.016117 
530.424400  	85.580982 
532.353216  	85.149254 
534.282032  	84.742476 
536.210848  	84.195603 
538.139664  	83.660493 
540.068480  	83.495871 
541.997296  	83.200370 
543.926112  	82.434739 
545.854928  	81.480365 
547.783744  	80.893707 
549.712560  	80.782563 
551.641376  	80.139972 
553.570192  	79.230436 
555.499008  	78.164572 
557.427824  	77.311660 
559.356640  	76.494598 
561.285456  	75.548614 
563.214272  	74.511495 
565.143088  	73.237993 
567.071904  	71.915125 
569.000720  	70.712695 
570.929536  	69.521339 
572.858352  	68.180135 
574.787168  	66.638496 
576.715984  	65.821390 
578.644800  	66.322543 
580.573616  	67.864896 
582.502432  	71.136449 
584.431248  	76.412948 
586.360064  	82.416245 
588.288880  	87.707459 
590.217696  	91.418666 
592.146512  	93.851849 
594.075328  	95.245562 
596.004144  	96.065799 
597.932960  	96.175976 
599.861776  	95.747355 
601.790592  	95.360725 
603.719408  	94.780038 
605.648224  	93.635836 
607.577040  	92.548819 
609.505856  	91.726956 
611.434672  	90.824945 
613.363488  	89.677030 
615.292304  	88.539556 
617.221120  	87.376280 
619.149936  	86.300403 
621.078752  	85.110062 
623.007568  	83.587761 
624.936384  	81.779799 
626.865200  	79.811827 
628.794016  	78.444594 
630.722832  	76.576059 
632.651648  	74.445332 
634.580464  	72.226876 
636.509280  	69.785083 
638.438096  	67.538532 
640.366912  	65.217614 
642.295728  	63.476929 
644.224544  	62.916471 
646.153360  	64.993389 
648.082176  	70.239168 
650.010992  	78.712603 
651.939808  	88.033303 
653.868624  	95.640578 
655.797440  	99.326600 
657.726256  	101.330858 
659.655072  	102.237745 
661.583888  	103.064997 
663.512704  	102.961813 
665.441520  	102.745443 
667.370336  	102.098556 
669.299152  	101.333906 
671.227968  	101.240918 
673.156784  	100.820804 
675.085600  	100.045058 
677.014416  	98.994056 
678.943232  	99.027158 
680.872048  	98.599132 
682.800864  	98.162549 
684.729680  	97.651712 
686.658496  	97.133331 
688.587312  	96.643661 
690.516128  	96.162126 
692.444944  	95.618230 
694.373760  	95.093083 
696.302576  	94.732428 
698.231392  	94.427488 
700.160208  	94.123347 
702.089024  	93.684900 
704.017840  	93.077245 
705.946656  	92.445288 
707.875472  	91.834515 
709.804288  	91.240373 
711.733104  	90.525009 
713.661920  	89.844792 
715.590736  	89.064703 
717.519552  	88.343500 
719.448368  	87.735006 
721.377184  	87.426081 
723.306000  	87.712870 
725.234816  	88.376945 
727.163632  	88.984344 
729.092448  	89.121157 
731.021264  	89.033482 
732.950080  	88.721183 
734.878896  	88.418576 
736.807712  	87.993268 
738.736528  	87.613272 
740.665344  	87.251765 
742.594160  	86.943763 
744.522976  	86.558478 
746.451792  	86.158657 
748.380608  	85.846892 
750.309424  	85.552515 
752.238240  	85.235411 
754.167056  	84.854974 
756.095872  	84.471701 
758.024688  	84.214990 
759.953504  	83.783529 
761.882320  	83.428288 
763.811136  	82.948196 
765.739952  	82.380812 
767.668768  	81.802738 
769.597584  	81.244766 
771.526400  	80.621588 
773.455216  	79.428675 
775.384032  	77.338534 
777.312848  	74.963011 
779.241664  	73.888475 
781.170480  	74.772515 
783.099296  	76.196058 
785.028112  	77.071486 
786.956928  	77.398488 
788.885744  	77.540203 
790.814560  	77.487991 
792.743376  	77.148745 
794.672192  	76.754766 
796.601008  	76.430349 
798.529824  	76.114694 
800.458640  	75.829875 
802.387456  	75.556384 
804.316272  	75.150500 
806.245088  	74.692769 
808.173904  	74.398515 
810.102720  	74.050167 
812.031536  	73.577089 
813.960352  	73.130533 
815.889168  	72.815001 
817.817984  	72.478798 
819.746800  	72.059164 
821.675616  	71.736723 
823.604432  	71.418306 
825.533248  	70.977706 
827.462064  	70.534519 
829.390880  	70.167141 
831.319696  	69.828027 
833.248512  	69.521614 
835.177328  	69.232244 
837.106144  	68.936047 
839.034960  	68.527547 
840.963776  	68.098434 
842.892592  	67.775958 
844.821408  	67.510829 
846.750224  	67.263129 
848.679040  	67.026289 
850.607856  	66.850301 
852.536672  	66.648122 
854.465488  	66.494847 
856.394304  	66.399588 
858.323120  	66.347688 
860.251936  	66.243405 
862.180752  	66.159474 
864.109568  	66.010559 
866.038384  	65.796304 
867.967200  	65.493785 
869.896016  	65.226332 
871.824832  	65.022664 
873.753648  	64.806292 
875.682464  	64.512968 
877.611280  	64.205578 
879.540096  	64.024677 
881.468912  	63.871666 
883.397728  	63.695170 
885.326544  	63.602066 
887.255360  	63.582864 
889.184176  	63.641618 
891.112992  	63.736840 
893.041808  	63.846681 
894.970624  	64.084848 
896.899440  	64.426364 
898.828256  	64.870910 
900.757072  	65.512284 
902.685888  	66.269601 
904.614704  	67.125503 
906.543520  	68.048826 
908.472336  	68.915286 
910.401152  	69.559354 
912.329968  	69.885360 
914.258784  	69.851008 
916.187600  	69.964301 
918.116416  	70.348731 
920.045232  	70.817147 
921.974048  	71.308258 
923.902864  	71.696824 
925.831680  	72.073265 
927.760496  	72.599374 
929.689312  	73.257952 
931.618128  	74.251044 
933.546944  	75.649224 
935.475760  	77.291676 
937.404576  	78.887480 
939.333392  	80.195339 
941.262208  	80.961884 
943.191024  	81.315619 
945.119840  	81.469956 
947.048656  	81.508477 
948.977472  	81.351297 
950.906288  	81.170270 
952.835104  	81.093296 
954.763920  	81.271916 
956.692736  	81.600252 
958.621552  	82.030955 
960.550368  	82.477499 
962.479184  	82.798327 
964.408000  	83.017734 
966.336816  	83.194292 
968.265632  	83.327398 
970.194448  	83.578636 
972.123264  	83.984307 
974.052080  	84.276739 
975.980896  	84.359439 
977.909712  	84.321459 
979.838528  	84.136401 
981.767344  	83.837222 
983.696160  	83.348346 
985.624976  	82.675399 
987.553792  	81.779142 
989.482608  	80.516097 
991.411424  	78.717502 
993.340240  	76.451283 
995.269056  	74.046147 
997.197872  	72.222713 
999.126688  	71.629184 
1001.055504  	72.564648 
1002.984320  	73.723778 
1004.913136  	73.354951 
1006.841952  	71.936610 
1008.770768  	71.254489 
1010.699584  	72.139014 
1012.628400  	74.350182 
1014.557216  	77.481230 
1016.486032  	81.070427 
1018.414848  	84.037631 
1020.343664  	85.737052 
1022.272480  	86.571990 
1024.201296  	87.008716 
1026.130112  	87.203122 
1028.058928  	87.254659 
1029.987744  	87.271313 
1031.916560  	87.273858 
1033.845376  	87.223817 
1035.774192  	87.145426 
1037.703008  	87.076561 
1039.631824  	86.994279 
1041.560640  	86.895415 
1043.489456  	86.811429 
1045.418272  	86.697648 
1047.347088  	86.623927 
1049.275904  	86.512061 
1051.204720  	86.388250 
1053.133536  	86.287741 
1055.062352  	86.210390 
1056.991168  	86.124619 
1058.919984  	86.039101 
1060.848800  	85.960063 
1062.777616  	85.893762 
1064.706432  	85.829954 
1066.635248  	85.743508 
1068.564064  	85.614282 
1070.492880  	85.482441 
1072.421696  	85.384616 
1074.350512  	85.306113 
1076.279328  	85.157481 
1078.208144  	85.023884 
1080.136960  	84.889404 
1082.065776  	84.720267 
1083.994592  	84.587228 
1085.923408  	84.484363 
1087.852224  	84.301636 
1089.781040  	84.127654 
1091.709856  	84.004476 
1093.638672  	83.865095 
1095.567488  	83.707296 
1097.496304  	83.584997 
1099.425120  	83.435485 
1101.353936  	83.303695 
1103.282752  	83.188952 
1105.211568  	83.102530 
1107.140384  	83.002468 
1109.069200  	82.901267 
1110.998016  	82.774912 
1112.926832  	82.608988 
1114.855648  	82.438760 
1116.784464  	82.365857 
1118.713280  	82.237007 
1120.642096  	82.078386 
1122.570912  	81.970973 
1124.499728  	81.852777 
1126.428544  	81.747159 
1128.357360  	81.619039 
1130.286176  	81.479049 
1132.214992  	81.343284 
1134.143808  	81.163750 
1136.072624  	80.977059 
1138.001440  	80.767548 
1139.930256  	80.574477 
1141.859072  	80.362278 
1143.787888  	80.161713 
1145.716704  	79.940962 
1147.645520  	79.719796 
1149.574336  	79.491305 
1151.503152  	79.239569 
1153.431968  	79.003840 
1155.360784  	78.789593 
1157.289600  	78.534785 
1159.218416  	78.302931 
1161.147232  	78.086740 
1163.076048  	77.854363 
1165.004864  	77.607293 
1166.933680  	77.350865 
1168.862496  	77.071064 
1170.791312  	76.826752 
1172.720128  	76.553762 
1174.648944  	76.240779 
1176.577760  	75.930871 
1178.506576  	75.596671 
1180.435392  	75.219897 
1182.364208  	74.893413 
1184.293024  	74.584211 
1186.221840  	74.204759 
1188.150656  	73.828440 
1190.079472  	73.489076 
1192.008288  	73.162086 
1193.937104  	72.981682 
1195.865920  	72.796266 
1197.794736  	72.486354 
1199.723552  	71.987586 
1201.652368  	71.428439 
1203.581184  	70.827414 
1205.510000  	70.202162 
1207.438816  	69.551031 
1209.367632  	69.027924 
1211.296448  	68.757403 
1213.225264  	68.934960 
1215.154080  	69.564504 
1217.082896  	70.157836 
1219.011712  	70.123393 
1220.940528  	69.483359 
1222.869344  	68.716089 
1224.798160  	68.086066 
1226.726976  	67.739197 
1228.655792  	67.866448 
1230.584608  	68.542212 
1232.513424  	69.987047 
1234.442240  	72.237868 
1236.371056  	75.215218 
1238.299872  	78.633662 
1240.228688  	81.998597 
1242.157504  	84.533320 
1244.086320  	85.947401 
1246.015136  	86.289392 
1247.943952  	85.865525 
1249.872768  	84.702047 
1251.801584  	82.831544 
1253.730400  	80.413426 
1255.659216  	77.892660 
1257.588032  	75.554120 
1259.516848  	73.419965 
1261.445664  	71.463921 
1263.374480  	69.704539 
1265.303296  	68.038604 
1267.232112  	66.559986 
1269.160928  	65.416198 
1271.089744  	64.834381 
1273.018560  	65.145699 
1274.947376  	66.528679 
1276.876192  	68.735043 
1278.805008  	71.432067 
1280.733824  	74.355349 
1282.662640  	77.535858 
1284.591456  	80.933443 
1286.520272  	84.343112 
1288.449088  	87.416209 
1290.377904  	89.872971 
1292.306720  	91.645913 
1294.235536  	92.913678 
1296.164352  	93.951396 
1298.093168  	94.812842 
1300.021984  	95.227933 
1301.950800  	94.996986 
1303.879616  	94.142656 
1305.808432  	92.856153 
1307.737248  	91.389197 
1309.666064  	89.984667 
1311.594880  	88.659885 
1313.523696  	87.308173 
1315.452512  	86.099784 
1317.381328  	85.061072 
1319.310144  	84.593629 
1321.238960  	85.323219 
1323.167776  	87.116829 
1325.096592  	89.517400 
1327.025408  	91.843188 
1328.954224  	93.567167 
1330.883040  	94.569615 
1332.811856  	95.235240 
1334.740672  	95.177859 
1336.669488  	94.995145 
1338.598304  	94.688457 
1340.527120  	94.356615 
1342.455936  	94.112463 
1344.384752  	93.830525 
1346.313568  	93.426746 
1348.242384  	93.023453 
1350.171200  	92.607010 
1352.100016  	92.208765 
1354.028832  	91.785200 
1355.957648  	91.319248 
1357.886464  	90.880246 
1359.815280  	90.490431 
1361.744096  	90.028526 
1363.672912  	89.474312 
1365.601728  	89.016025 
1367.530544  	88.578331 
1369.459360  	88.067635 
1371.388176  	87.619051 
1373.316992  	87.124587 
1375.245808  	86.496493 
1377.174624  	85.981915 
1379.103440  	85.481796 
1381.032256  	84.982024 
1382.961072  	84.487148 
1384.889888  	83.952175 
1386.818704  	83.305867 
1388.747520  	82.580947 
1390.676336  	82.013143 
1392.605152  	81.523657 
1394.533968  	80.753409 
1396.462784  	79.933490 
1398.391600  	79.245704 
1400.320416  	78.386704 
1402.249232  	77.750007 
1404.178048  	76.990937 
1406.106864  	76.104609 
1408.035680  	75.456230 
1409.964496  	75.071672 
1411.893312  	74.750782 
1413.822128  	74.579697 
1415.750944  	74.387027 
1417.679760  	74.051830 
1419.608576  	73.018877 
1421.537392  	72.920492 
1423.466208  	73.387328 
1425.395024  	74.324034 
1427.323840  	75.995431 
1429.252656  	78.347733 
1431.181472  	81.101017 
1433.110288  	83.736645 
1435.039104  	86.378043 
1436.967920  	89.335960 
1438.896736  	91.388301 
1440.825552  	92.941009 
1442.754368  	94.391961 
1444.683184  	95.230023 
1446.612000  	96.438184 
1448.540816  	97.520740 
1450.469632  	98.176097 
1452.398448  	98.700433 
1454.327264  	99.177471 
1456.256080  	99.443066 
1458.184896  	98.795610 
1460.113712  	98.648403 
1462.042528  	98.664389 
1463.971344  	98.621481 
1465.900160  	97.968555 
1467.828976  	97.667038 
1469.757792  	97.727788 
1471.686608  	97.670315 
1473.615424  	96.780594 
1475.544240  	96.323982 
1477.473056  	95.818355 
1479.401872  	95.543783 
1481.330688  	95.215337 
1483.259504  	94.989446 
1485.188320  	94.659044 
1487.117136  	94.281996 
1489.045952  	93.552360 
1490.974768  	92.626579 
1492.903584  	92.309781 
1494.832400  	92.341147 
1496.761216  	91.743594 
1498.690032  	90.982754 
1500.618848  	90.423713 
1502.547664  	90.331844 
1504.476480  	90.752595 
1506.405296  	90.134889 
1508.334112  	88.608179 
1510.262928  	88.686855 
1512.191744  	88.577165 
1514.120560  	88.644925 
1516.049376  	88.469896 
1517.978192  	87.994193 
1519.907008  	88.114433 
1521.835824  	87.157642 
1523.764640  	86.606945 
1525.693456  	86.411511 
1527.622272  	86.001206 
1529.551088  	85.928783 
1531.479904  	85.924314 
1533.408720  	85.563020 
1535.337536  	85.135333 
1537.266352  	85.493809 
1539.195168  	85.472444 
1541.123984  	84.204287 
1543.052800  	83.833189 
1544.981616  	83.443859 
1546.910432  	83.190132 
1548.839248  	83.002900 
1550.768064  	82.470641 
1552.696880  	82.253358 
1554.625696  	81.837171 
1556.554512  	81.850782 
1558.483328  	81.144103 
1560.412144  	80.046189 
1562.340960  	80.176367 
1564.269776  	80.023920 
1566.198592  	79.691704 
1568.127408  	79.610180 
1570.056224  	78.956184 
1571.985040  	78.614885 
1573.913856  	78.621369 
1575.842672  	78.264430 
1577.771488  	77.597270 
1579.700304  	77.474639 
1581.629120  	77.246063 
1583.557936  	76.986490 
1585.486752  	76.727332 
1587.415568  	76.572586 
1589.344384  	76.333662 
1591.273200  	76.129318 
1593.202016  	75.874178 
1595.130832  	75.637158 
1597.059648  	75.413369 
1598.988464  	75.237410 
1600.917280  	74.941088 
1602.846096  	74.565286 
1604.774912  	74.185192 
1606.703728  	73.929575 
1608.632544  	73.550115 
1610.561360  	73.201642 
1612.490176  	72.872361 
1614.418992  	72.878655 
1616.347808  	72.392880 
1618.276624  	71.645030 
1620.205440  	71.501759 
1622.134256  	71.280313 
1624.063072  	70.443521 
1625.991888  	70.220513 
1627.920704  	69.820692 
1629.849520  	69.349529 
1631.778336  	69.152472 
1633.707152  	69.464362 
1635.635968  	68.634277 
1637.564784  	67.649425 
1639.493600  	67.560443 
1641.422416  	67.463492 
1643.351232  	67.587307 
1645.280048  	67.869485 
1647.208864  	66.669273 
1649.137680  	66.459382 
1651.066496  	67.307508 
1652.995312  	66.317370 
1654.924128  	65.061517 
1656.852944  	65.540845 
1658.781760  	65.795244 
1660.710576  	66.122622 
1662.639392  	66.107123 
1664.568208  	66.236483 
1666.497024  	66.923889 
1668.425840  	67.503338 
1670.354656  	67.370022 
1672.283472  	67.725221 
1674.212288  	68.353800 
1676.141104  	68.443517 
1678.069920  	68.927492 
1679.998736  	69.640322 
1681.927552  	70.673506 
1683.856368  	71.268936 
1685.785184  	71.759970 
1687.714000  	72.907876 
1689.642816  	73.925252 
1691.571632  	75.026180 
1693.500448  	76.299136 
1695.429264  	77.553791 
1697.358080  	78.535786 
1699.286896  	79.805201 
1701.215712  	80.697177 
1703.144528  	81.771460 
1705.073344  	82.804041 
1707.002160  	83.621304 
1708.930976  	84.462196 
1710.859792  	85.446089 
1712.788608  	86.625266 
1714.717424  	87.913056 
1716.646240  	89.195032 
1718.575056  	90.534322 
1720.503872  	91.592089 
1722.432688  	92.676054 
1724.361504  	93.868152 
1726.290320  	94.929468 
1728.219136  	95.484519 
1730.147952  	96.077900 
1732.076768  	96.793884 
1734.005584  	97.158875 
1735.934400  	97.410243 
1737.863216  	97.740384 
1739.792032  	97.969107 
1741.720848  	98.065364 
1743.649664  	98.225424 
1745.578480  	98.504112 
1747.507296  	98.767246 
1749.436112  	98.755287 
1751.364928  	98.720741 
1753.293744  	98.879632 
1755.222560  	99.164304 
1757.151376  	99.209513 
1759.080192  	99.390861 
1761.009008  	99.571422 
1762.937824  	99.696880 
1764.866640  	99.858524 
1766.795456  	99.892584 
1768.724272  	99.862214 
1770.653088  	99.949902 
1772.581904  	99.860840 
1774.510720  	99.791606 
1776.439536  	99.729429 
1778.368352  	99.690732 
1780.297168  	99.606714 
1782.225984  	99.598405 
1784.154800  	99.589959 
1786.083616  	99.522345 
1788.012432  	99.495013 
1789.941248  	99.554410 
1791.870064  	99.551949 
1793.798880  	99.497700 
1795.727696  	99.436401 
1797.656512  	99.443167 
1799.585328  	99.415500 
1801.514144  	99.336262 
1803.442960  	99.295652 
1805.371776  	99.321691 
1807.300592  	99.330527 
1809.229408  	99.331438 
1811.158224  	99.292826 
1813.087040  	99.295907 
1815.015856  	99.303654 
1816.944672  	99.303593 
1818.873488  	99.264519 
1820.802304  	99.275620 
1822.731120  	99.319434 
1824.659936  	99.322771 
1826.588752  	99.221930 
1828.517568  	99.181565 
1830.446384  	99.054538 
1832.375200  	99.062682 
1834.304016  	99.068002 
1836.232832  	99.091979 
1838.161648  	99.048457 
1840.090464  	99.052097 
1842.019280  	99.108129 
1843.948096  	99.094729 
1845.876912  	98.932327 
1847.805728  	98.932359 
1849.734544  	98.973639 
1851.663360  	99.031267 
1853.592176  	98.972163 
1855.520992  	98.921575 
1857.449808  	98.872992 
1859.378624  	98.902886 
1861.307440  	98.856124 
1863.236256  	98.771907 
1865.165072  	98.725860 
1867.093888  	98.679196 
1869.022704  	98.484551 
1870.951520  	98.393771 
1872.880336  	98.307177 
1874.809152  	98.203719 
1876.737968  	97.964577 
1878.666784  	97.823361 
1880.595600  	97.706702 
1882.524416  	97.644894 
1884.453232  	97.595169 
1886.382048  	97.684262 
1888.310864  	97.716165 
1890.239680  	97.800104 
1892.168496  	97.969997 
1894.097312  	98.072397 
1896.026128  	98.019163 
