##TITLE=EP142
##DATA TYPE=INFRARED SPECTRUM
##XUNITS=1/CM
##YUNITS=%T
399.264912  	97.486425 
401.193728  	104.781738 
403.122544  	102.335725 
405.051360  	102.553257 
406.980176  	103.686618 
408.908992  	104.863187 
410.837808  	101.596195 
412.766624  	102.511881 
414.695440  	104.141611 
416.624256  	98.149253 
418.553072  	93.384156 
420.481888  	101.919706 
422.410704  	104.142486 
424.339520  	103.986425 
426.268336  	105.236746 
428.197152  	106.386851 
430.125968  	108.466304 
432.054784  	108.207462 
433.983600  	105.165151 
435.912416  	105.353918 
437.841232  	106.783285 
439.770048  	106.133140 
441.698864  	104.904713 
443.627680  	105.539333 
445.556496  	105.345758 
447.485312  	105.590891 
449.414128  	106.738667 
451.342944  	106.278289 
453.271760  	105.604985 
455.200576  	104.854938 
457.129392  	103.279088 
459.058208  	103.417362 
460.987024  	103.784738 
462.915840  	104.213642 
464.844656  	105.085733 
466.773472  	103.753586 
468.702288  	102.341068 
470.631104  	101.561445 
472.559920  	100.102889 
474.488736  	100.096442 
476.417552  	100.460585 
478.346368  	100.046616 
480.275184  	98.633734 
482.204000  	96.468936 
484.132816  	93.753001 
486.061632  	92.055692 
487.990448  	90.369983 
489.919264  	87.537058 
491.848080  	84.434631 
493.776896  	82.536512 
495.705712  	81.562000 
497.634528  	80.413743 
499.563344  	79.171387 
501.492160  	78.376527 
503.420976  	79.649372 
505.349792  	81.167485 
507.278608  	83.035803 
509.207424  	84.857019 
511.136240  	86.373119 
513.065056  	87.627615 
514.993872  	88.232606 
516.922688  	88.599933 
518.851504  	89.667633 
520.780320  	91.261516 
522.709136  	92.561322 
524.637952  	93.068981 
526.566768  	93.873191 
528.495584  	95.070985 
530.424400  	96.684085 
532.353216  	98.910950 
534.282032  	100.587474 
536.210848  	101.326951 
538.139664  	102.198891 
540.068480  	103.462212 
541.997296  	104.573205 
543.926112  	105.202705 
545.854928  	105.397889 
547.783744  	105.817562 
549.712560  	106.284859 
551.641376  	106.648349 
553.570192  	106.875145 
555.499008  	106.814824 
557.427824  	106.781398 
559.356640  	106.654980 
561.285456  	106.926645 
563.214272  	107.002281 
565.143088  	106.739690 
567.071904  	106.776875 
569.000720  	106.899505 
570.929536  	106.602322 
572.858352  	106.548948 
574.787168  	106.181593 
576.715984  	106.192312 
578.644800  	106.452663 
580.573616  	105.827128 
582.502432  	105.627979 
584.431248  	105.360699 
586.360064  	104.897693 
588.288880  	104.316739 
590.217696  	103.308601 
592.146512  	102.048572 
594.075328  	101.241346 
596.004144  	100.367809 
597.932960  	98.813874 
599.861776  	96.911749 
601.790592  	95.295312 
603.719408  	93.690968 
605.648224  	92.443811 
607.577040  	92.568125 
609.505856  	94.453548 
611.434672  	97.292962 
613.363488  	99.848111 
615.292304  	101.539718 
617.221120  	102.958321 
619.149936  	104.214813 
621.078752  	105.237870 
623.007568  	105.312373 
624.936384  	105.268275 
626.865200  	105.235250 
628.794016  	105.246113 
630.722832  	105.159200 
632.651648  	104.945417 
634.580464  	104.706796 
636.509280  	104.566757 
638.438096  	104.361059 
640.366912  	104.073241 
642.295728  	103.795405 
644.224544  	103.482936 
646.153360  	103.182847 
648.082176  	102.790487 
650.010992  	102.412908 
651.939808  	102.096385 
653.868624  	101.771684 
655.797440  	101.418064 
657.726256  	100.921598 
659.655072  	100.465736 
661.583888  	100.029789 
663.512704  	99.639630 
665.441520  	99.124441 
667.370336  	98.193079 
669.299152  	97.075256 
671.227968  	96.743343 
673.156784  	96.074213 
675.085600  	95.157353 
677.014416  	94.175689 
678.943232  	93.173430 
680.872048  	92.228618 
682.800864  	91.184487 
684.729680  	89.952538 
686.658496  	88.848105 
688.587312  	87.857891 
690.516128  	87.034451 
692.444944  	86.411030 
694.373760  	86.163503 
696.302576  	86.538329 
698.231392  	87.934452 
700.160208  	90.300501 
702.089024  	93.253580 
704.017840  	96.333768 
705.946656  	99.358263 
707.875472  	101.996714 
709.804288  	103.855741 
711.733104  	104.915787 
713.661920  	105.766808 
715.590736  	106.274297 
717.519552  	106.446183 
719.448368  	106.543426 
721.377184  	106.730183 
723.306000  	106.969624 
725.234816  	107.095421 
727.163632  	107.077529 
729.092448  	106.940856 
731.021264  	106.821288 
732.950080  	106.691223 
734.878896  	106.527129 
736.807712  	106.374056 
738.736528  	106.401791 
740.665344  	106.376336 
742.594160  	106.296548 
744.522976  	106.276879 
746.451792  	106.261310 
748.380608  	106.196898 
750.309424  	106.062960 
752.238240  	105.897012 
754.167056  	105.940011 
756.095872  	105.935340 
758.024688  	105.748621 
759.953504  	105.653236 
761.882320  	105.595052 
763.811136  	105.385123 
765.739952  	105.375745 
767.668768  	105.388170 
769.597584  	105.300200 
771.526400  	105.222570 
773.455216  	105.133942 
775.384032  	104.988733 
777.312848  	104.871035 
779.241664  	104.747323 
781.170480  	104.716351 
783.099296  	104.543571 
785.028112  	104.479286 
786.956928  	104.429459 
788.885744  	104.477406 
790.814560  	104.504303 
792.743376  	104.352250 
794.672192  	104.139548 
796.601008  	104.064986 
798.529824  	103.996214 
800.458640  	103.908024 
802.387456  	103.825857 
804.316272  	103.772737 
806.245088  	103.690940 
808.173904  	103.604439 
810.102720  	103.474512 
812.031536  	103.341242 
813.960352  	103.197949 
815.889168  	103.151537 
817.817984  	103.068598 
819.746800  	102.900135 
821.675616  	102.757708 
823.604432  	102.695478 
825.533248  	102.548567 
827.462064  	102.465669 
829.390880  	102.328013 
831.319696  	102.154418 
833.248512  	101.976400 
835.177328  	101.928087 
837.106144  	101.903114 
839.034960  	101.745185 
840.963776  	101.507954 
842.892592  	101.383957 
844.821408  	101.311536 
846.750224  	101.213865 
848.679040  	101.015515 
850.607856  	100.774982 
852.536672  	100.552814 
854.465488  	100.398205 
856.394304  	100.079058 
858.323120  	99.727589 
860.251936  	99.453918 
862.180752  	99.231424 
864.109568  	98.997804 
866.038384  	98.642565 
867.967200  	98.171083 
869.896016  	97.769675 
871.824832  	97.310311 
873.753648  	96.810868 
875.682464  	96.195176 
877.611280  	95.293961 
879.540096  	94.160107 
881.468912  	92.807012 
883.397728  	91.006332 
885.326544  	88.725970 
887.255360  	85.831308 
889.184176  	82.302845 
891.112992  	79.261689 
893.041808  	79.281027 
894.970624  	82.840976 
896.899440  	87.148713 
898.828256  	89.113740 
900.757072  	88.624977 
902.685888  	86.920045 
904.614704  	84.848233 
906.543520  	82.980205 
908.472336  	82.107845 
910.401152  	83.081180 
912.329968  	86.177734 
914.258784  	90.514408 
916.187600  	94.660341 
918.116416  	97.788210 
920.045232  	99.911971 
921.974048  	101.238675 
923.902864  	101.983675 
925.831680  	102.425548 
927.760496  	102.716354 
929.689312  	102.866005 
931.618128  	102.927665 
933.546944  	102.956584 
935.475760  	102.968190 
937.404576  	102.930132 
939.333392  	102.864755 
941.262208  	102.780264 
943.191024  	102.659732 
945.119840  	102.558002 
947.048656  	102.477702 
948.977472  	102.392654 
950.906288  	102.342191 
952.835104  	102.267767 
954.763920  	102.136328 
956.692736  	101.981932 
958.621552  	101.911418 
960.550368  	101.869299 
962.479184  	101.748902 
964.408000  	101.635401 
966.336816  	101.558124 
968.265632  	101.477636 
970.194448  	101.416522 
972.123264  	101.355461 
974.052080  	101.267868 
975.980896  	101.192169 
977.909712  	101.151482 
979.838528  	101.062965 
981.767344  	100.993408 
983.696160  	100.885103 
985.624976  	100.769028 
987.553792  	100.720578 
989.482608  	100.642085 
991.411424  	100.536178 
993.340240  	100.468837 
995.269056  	100.378414 
997.197872  	100.328945 
999.126688  	100.227270 
1001.055504  	100.141020 
1002.984320  	100.039976 
1004.913136  	99.906238 
1006.841952  	99.802909 
1008.770768  	99.689326 
1010.699584  	99.575081 
1012.628400  	99.510425 
1014.557216  	99.335260 
1016.486032  	99.124465 
1018.414848  	98.885590 
1020.343664  	98.636626 
1022.272480  	98.306132 
1024.201296  	97.849146 
1026.130112  	97.207496 
1028.058928  	96.285280 
1029.987744  	95.073456 
1031.916560  	93.989830 
1033.845376  	93.760438 
1035.774192  	94.728573 
1037.703008  	96.261807 
1039.631824  	97.547341 
1041.560640  	98.259014 
1043.489456  	98.650867 
1045.418272  	98.895053 
1047.347088  	99.024659 
1049.275904  	98.990505 
1051.204720  	98.943358 
1053.133536  	98.939878 
1055.062352  	98.924058 
1056.991168  	98.834646 
1058.919984  	98.745446 
1060.848800  	98.657196 
1062.777616  	98.589237 
1064.706432  	98.530370 
1066.635248  	98.472603 
1068.564064  	98.326761 
1070.492880  	98.165311 
1072.421696  	98.058571 
1074.350512  	97.974311 
1076.279328  	97.823782 
1078.208144  	97.631742 
1080.136960  	97.411657 
1082.065776  	97.189229 
1083.994592  	96.970643 
1085.923408  	96.751291 
1087.852224  	96.438581 
1089.781040  	96.104867 
1091.709856  	95.747342 
1093.638672  	95.357217 
1095.567488  	94.931646 
1097.496304  	94.451838 
1099.425120  	93.921911 
1101.353936  	93.309739 
1103.282752  	92.631170 
1105.211568  	91.938877 
1107.140384  	91.200089 
1109.069200  	90.631156 
1110.998016  	90.467851 
1112.926832  	90.855455 
1114.855648  	91.821615 
1116.784464  	93.170624 
1118.713280  	94.384969 
1120.642096  	95.127576 
1122.570912  	95.410844 
1124.499728  	95.267723 
1126.428544  	94.753012 
1128.357360  	94.022289 
1130.286176  	93.337228 
1132.214992  	93.081782 
1134.143808  	93.379224 
1136.072624  	94.136114 
1138.001440  	95.135536 
1139.930256  	96.076729 
1141.859072  	96.769283 
1143.787888  	97.211009 
1145.716704  	97.436872 
1147.645520  	97.530618 
1149.574336  	97.545124 
1151.503152  	97.549821 
1153.431968  	97.459706 
1155.360784  	97.376163 
1157.289600  	97.264230 
1159.218416  	97.172990 
1161.147232  	97.070487 
1163.076048  	96.931595 
1165.004864  	96.818341 
1166.933680  	96.747315 
1168.862496  	96.643206 
1170.791312  	96.544903 
1172.720128  	96.410219 
1174.648944  	96.279231 
1176.577760  	96.203858 
1178.506576  	96.112092 
1180.435392  	95.980206 
1182.364208  	95.910468 
1184.293024  	95.773788 
1186.221840  	95.613041 
1188.150656  	95.503871 
1190.079472  	95.420959 
1192.008288  	95.254762 
1193.937104  	95.140084 
1195.865920  	95.008085 
1197.794736  	94.909328 
1199.723552  	94.829928 
1201.652368  	94.742676 
1203.581184  	94.659232 
1205.510000  	94.593039 
1207.438816  	94.525139 
1209.367632  	94.452348 
1211.296448  	94.349857 
1213.225264  	94.285572 
1215.154080  	94.225860 
1217.082896  	94.112450 
1219.011712  	93.990325 
1220.940528  	93.894436 
1222.869344  	93.783954 
1224.798160  	93.655569 
1226.726976  	93.546815 
1228.655792  	93.443667 
1230.584608  	93.308352 
1232.513424  	93.230375 
1234.442240  	93.121990 
1236.371056  	92.994071 
1238.299872  	92.874720 
1240.228688  	92.794821 
1242.157504  	92.658665 
1244.086320  	92.522083 
1246.015136  	92.469817 
1247.943952  	92.427890 
1249.872768  	92.313073 
1251.801584  	92.202576 
1253.730400  	92.073048 
1255.659216  	91.963340 
1257.588032  	91.823515 
1259.516848  	91.584237 
1261.445664  	91.427860 
1263.374480  	91.334928 
1265.303296  	91.128990 
1267.232112  	90.891947 
1269.160928  	90.628429 
1271.089744  	90.412821 
1273.018560  	90.294779 
1274.947376  	90.168765 
1276.876192  	89.945726 
1278.805008  	89.714548 
1280.733824  	89.461527 
1282.662640  	89.243236 
1284.591456  	88.952680 
1286.520272  	88.556874 
1288.449088  	88.212413 
1290.377904  	87.995466 
1292.306720  	87.693016 
1294.235536  	87.315716 
1296.164352  	86.870201 
1298.093168  	86.526022 
1300.021984  	86.124675 
1301.950800  	85.590186 
1303.879616  	84.973792 
1305.808432  	84.325141 
1307.737248  	83.606194 
1309.666064  	82.989149 
1311.594880  	82.430143 
1313.523696  	82.154393 
1315.452512  	82.173141 
1317.381328  	82.191601 
1319.310144  	82.201498 
1321.238960  	82.028962 
1323.167776  	80.152255 
1325.096592  	80.185450 
1327.025408  	79.001765 
1328.954224  	77.455396 
1330.883040  	76.269036 
1332.811856  	76.450382 
1334.740672  	78.156366 
1336.669488  	80.775669 
1338.598304  	83.736080 
1340.527120  	87.190086 
1342.455936  	89.501798 
1344.384752  	90.521159 
1346.313568  	90.797944 
1348.242384  	90.102076 
1350.171200  	89.624045 
1352.100016  	89.670636 
1354.028832  	88.881344 
1355.957648  	88.404925 
1357.886464  	88.334382 
1359.815280  	87.730634 
1361.744096  	86.915246 
1363.672912  	86.551764 
1365.601728  	86.218228 
1367.530544  	85.519605 
1369.459360  	84.791468 
1371.388176  	84.093695 
1373.316992  	83.190984 
1375.245808  	82.539842 
1377.174624  	81.959206 
1379.103440  	81.375565 
1381.032256  	81.300272 
1382.961072  	80.877752 
1384.889888  	80.242514 
1386.818704  	79.702967 
1388.747520  	79.503177 
1390.676336  	79.111904 
1392.605152  	78.622686 
1394.533968  	78.105721 
1396.462784  	77.675348 
1398.391600  	77.448889 
1400.320416  	77.429381 
1402.249232  	76.962225 
1404.178048  	76.542794 
1406.106864  	76.384404 
1408.035680  	76.238769 
1409.964496  	76.373547 
1411.893312  	77.065772 
1413.822128  	78.095384 
1415.750944  	79.123434 
1417.679760  	80.702225 
1419.608576  	84.137198 
1421.537392  	86.055794 
1423.466208  	87.573180 
1425.395024  	89.038913 
1427.323840  	90.071358 
1429.252656  	90.724797 
1431.181472  	91.094938 
1433.110288  	90.949059 
1435.039104  	90.591294 
1436.967920  	89.887044 
1438.896736  	88.461894 
1440.825552  	86.637667 
1442.754368  	85.242439 
1444.683184  	85.329490 
1446.612000  	86.942283 
1448.540816  	88.576433 
1450.469632  	88.877928 
1452.398448  	88.568105 
1454.327264  	88.010984 
1456.256080  	87.204801 
1458.184896  	87.125998 
1460.113712  	87.363427 
1462.042528  	87.200639 
1463.971344  	86.920582 
1465.900160  	86.507838 
1467.828976  	85.906976 
1469.757792  	85.197676 
1471.686608  	84.235447 
1473.615424  	83.515198 
1475.544240  	83.043434 
1477.473056  	82.582152 
1479.401872  	81.744348 
1481.330688  	80.988773 
1483.259504  	80.424277 
1485.188320  	79.394686 
1487.117136  	78.131166 
1489.045952  	76.949925 
1490.974768  	76.697450 
1492.903584  	75.949277 
1494.832400  	75.066779 
1496.761216  	74.622444 
1498.690032  	74.499332 
1500.618848  	74.333464 
1502.547664  	74.183017 
1504.476480  	74.240015 
1506.405296  	74.626699 
1508.334112  	76.417154 
1510.262928  	76.711715 
1512.191744  	77.369159 
1514.120560  	77.462878 
1516.049376  	77.610154 
1517.978192  	78.514060 
1519.907008  	78.647489 
1521.835824  	79.590485 
1523.764640  	79.998697 
1525.693456  	80.207431 
1527.622272  	81.100147 
1529.551088  	81.736163 
1531.479904  	82.098670 
1533.408720  	82.903745 
1535.337536  	83.632759 
1537.266352  	84.060784 
1539.195168  	84.714719 
1541.123984  	85.530370 
1543.052800  	85.809491 
1544.981616  	86.513433 
1546.910432  	87.087062 
1548.839248  	86.880775 
1550.768064  	86.639841 
1552.696880  	86.399620 
1554.625696  	85.867719 
1556.554512  	85.524348 
1558.483328  	85.092314 
1560.412144  	85.307707 
1562.340960  	84.208234 
1564.269776  	83.639335 
1566.198592  	83.092012 
1568.127408  	82.615230 
1570.056224  	82.508845 
1571.985040  	81.995982 
1573.913856  	81.422140 
1575.842672  	81.568754 
1577.771488  	81.651543 
1579.700304  	81.395623 
1581.629120  	81.383196 
1583.557936  	81.589155 
1585.486752  	81.987140 
1587.415568  	82.509730 
1589.344384  	82.925378 
1591.273200  	83.339641 
1593.202016  	83.697248 
1595.130832  	84.047191 
1597.059648  	84.445013 
1598.988464  	84.763704 
1600.917280  	84.776097 
1602.846096  	84.725554 
1604.774912  	84.747253 
1606.703728  	84.573397 
1608.632544  	84.528544 
1610.561360  	84.758157 
1612.490176  	85.127764 
1614.418992  	85.639375 
1616.347808  	87.192641 
1618.276624  	88.652013 
1620.205440  	89.041953 
1622.134256  	89.840127 
1624.063072  	91.180282 
1625.991888  	91.870475 
1627.920704  	92.781338 
1629.849520  	93.658437 
1631.778336  	94.154555 
1633.707152  	94.767218 
1635.635968  	95.414609 
1637.564784  	95.961597 
1639.493600  	96.398964 
1641.422416  	96.871296 
1643.351232  	97.388260 
1645.280048  	97.812123 
1647.208864  	98.275932 
1649.137680  	98.861520 
1651.066496  	99.455228 
1652.995312  	99.903979 
1654.924128  	100.229057 
1656.852944  	100.379553 
1658.781760  	100.774756 
1660.710576  	100.865226 
1662.639392  	101.011516 
1664.568208  	101.158782 
1666.497024  	101.239726 
1668.425840  	101.250640 
1670.354656  	101.256520 
1672.283472  	101.321284 
1674.212288  	101.503050 
1676.141104  	101.578318 
1678.069920  	101.431938 
1679.998736  	101.249394 
1681.927552  	101.416243 
1683.856368  	101.567865 
1685.785184  	101.662260 
1687.714000  	101.377533 
1689.642816  	101.474023 
1691.571632  	101.666694 
1693.500448  	101.785257 
1695.429264  	101.701115 
1697.358080  	101.476684 
1699.286896  	101.763864 
1701.215712  	101.916950 
1703.144528  	101.583573 
1705.073344  	101.586046 
1707.002160  	101.708046 
1708.930976  	101.783481 
1710.859792  	101.803529 
1712.788608  	101.831751 
1714.717424  	101.608068 
1716.646240  	101.579504 
1718.575056  	101.950440 
1720.503872  	101.983585 
1722.432688  	101.892466 
1724.361504  	101.996835 
1726.290320  	102.096865 
1728.219136  	102.040907 
1730.147952  	101.820455 
1732.076768  	101.826388 
1734.005584  	101.868119 
1735.934400  	102.025317 
1737.863216  	101.955599 
1739.792032  	102.007696 
1741.720848  	101.855890 
1743.649664  	101.669685 
1745.578480  	101.677027 
1747.507296  	101.619097 
1749.436112  	101.582453 
1751.364928  	101.800977 
1753.293744  	101.961989 
1755.222560  	101.972427 
1757.151376  	101.868744 
1759.080192  	101.885751 
1761.009008  	101.934211 
1762.937824  	102.041675 
1764.866640  	102.059988 
1766.795456  	101.999680 
1768.724272  	101.904777 
1770.653088  	101.909928 
1772.581904  	101.866862 
1774.510720  	101.877754 
1776.439536  	101.864913 
1778.368352  	101.853577 
1780.297168  	101.726477 
1782.225984  	101.762294 
1784.154800  	101.774229 
1786.083616  	101.811174 
1788.012432  	101.816470 
1789.941248  	101.722757 
1791.870064  	101.622614 
1793.798880  	101.657316 
1795.727696  	101.544408 
1797.656512  	101.609434 
1799.585328  	101.578669 
1801.514144  	101.489663 
1803.442960  	101.608193 
1805.371776  	101.705023 
1807.300592  	101.644088 
1809.229408  	101.585272 
1811.158224  	101.518990 
1813.087040  	101.596099 
1815.015856  	101.647704 
1816.944672  	101.601744 
1818.873488  	101.631275 
1820.802304  	101.681300 
1822.731120  	101.621805 
1824.659936  	101.552859 
1826.588752  	101.499387 
1828.517568  	101.445028 
1830.446384  	101.422780 
1832.375200  	101.473291 
1834.304016  	101.443302 
1836.232832  	101.455871 
1838.161648  	101.497702 
1840.090464  	101.538240 
1842.019280  	101.475810 
1843.948096  	101.492121 
1845.876912  	101.467514 
1847.805728  	101.516187 
1849.734544  	101.654820 
1851.663360  	101.765090 
1853.592176  	101.761406 
1855.520992  	101.753162 
1857.449808  	101.722255 
1859.378624  	101.800919 
1861.307440  	101.765564 
1863.236256  	101.739571 
1865.165072  	101.652975 
1867.093888  	101.424267 
1869.022704  	101.279615 
1870.951520  	101.559674 
1872.880336  	101.721418 
