##TITLE=EP142
##DATA TYPE=INFRARED SPECTRUM
##XUNITS=1/CM
##YUNITS=%T
399.264912  	83.216555 
401.193728  	87.745565 
403.122544  	90.220192 
405.051360  	91.464650 
406.980176  	87.811308 
408.908992  	87.245553 
410.837808  	80.897182 
412.766624  	76.817953 
414.695440  	74.879597 
416.624256  	72.471495 
418.553072  	75.144356 
420.481888  	76.174571 
422.410704  	75.474972 
424.339520  	78.525374 
426.268336  	77.577082 
428.197152  	76.328973 
430.125968  	77.383880 
432.054784  	78.641960 
433.983600  	78.269578 
435.912416  	76.825481 
437.841232  	74.841516 
439.770048  	73.973445 
441.698864  	74.737288 
443.627680  	74.102987 
445.556496  	72.170797 
447.485312  	72.792571 
449.414128  	74.369972 
451.342944  	74.000671 
453.271760  	73.194557 
455.200576  	72.911213 
457.129392  	71.916713 
459.058208  	71.897847 
460.987024  	71.716611 
462.915840  	71.836075 
464.844656  	72.483101 
466.773472  	71.628821 
468.702288  	70.509585 
470.631104  	69.804831 
472.559920  	68.652778 
474.488736  	68.727561 
476.417552  	69.192026 
478.346368  	69.303151 
480.275184  	69.327613 
482.204000  	69.315284 
484.132816  	69.355939 
486.061632  	69.387049 
487.990448  	69.795852 
489.919264  	69.267160 
491.848080  	68.436105 
493.776896  	68.109660 
495.705712  	68.356280 
497.634528  	69.393632 
499.563344  	70.234340 
501.492160  	70.740685 
503.420976  	72.254527 
505.349792  	73.051476 
507.278608  	73.111893 
509.207424  	73.302686 
511.136240  	73.009739 
513.065056  	72.429351 
514.993872  	71.839337 
516.922688  	71.171536 
518.851504  	70.639911 
520.780320  	70.537857 
522.709136  	70.477650 
524.637952  	69.814866 
526.566768  	68.869741 
528.495584  	68.542386 
530.424400  	68.308344 
532.353216  	68.910581 
534.282032  	69.849487 
536.210848  	70.073208 
538.139664  	70.030146 
540.068480  	70.030055 
541.997296  	70.728935 
543.926112  	71.007097 
545.854928  	70.878993 
547.783744  	70.555983 
549.712560  	70.775824 
551.641376  	71.506861 
553.570192  	72.191418 
555.499008  	72.681602 
557.427824  	73.468206 
559.356640  	74.006176 
561.285456  	74.526710 
563.214272  	74.963823 
565.143088  	75.366004 
567.071904  	75.963079 
569.000720  	76.610950 
570.929536  	76.911302 
572.858352  	76.928191 
574.787168  	76.574902 
576.715984  	76.785617 
578.644800  	77.060643 
580.573616  	76.647156 
582.502432  	76.478992 
584.431248  	76.306623 
586.360064  	76.135750 
588.288880  	76.258906 
590.217696  	75.882940 
592.146512  	75.352395 
594.075328  	75.525724 
596.004144  	75.672910 
597.932960  	75.647141 
599.861776  	75.364617 
601.790592  	75.346212 
603.719408  	75.543682 
605.648224  	75.419065 
607.577040  	75.431763 
609.505856  	75.260458 
611.434672  	75.034353 
613.363488  	74.568792 
615.292304  	74.514407 
617.221120  	75.018207 
619.149936  	75.870444 
621.078752  	76.899692 
623.007568  	78.744463 
624.936384  	80.720273 
626.865200  	81.999181 
628.794016  	82.008243 
630.722832  	80.655033 
632.651648  	79.290779 
634.580464  	77.996612 
636.509280  	76.890397 
638.438096  	77.652268 
640.366912  	78.492649 
642.295728  	78.603625 
644.224544  	78.279622 
646.153360  	77.881702 
648.082176  	77.578337 
650.010992  	77.307557 
651.939808  	77.092480 
653.868624  	76.971072 
655.797440  	76.825671 
657.726256  	76.607592 
659.655072  	76.469228 
661.583888  	76.373386 
663.512704  	76.335941 
665.441520  	76.484998 
667.370336  	76.521905 
669.299152  	76.539139 
671.227968  	76.774616 
673.156784  	76.858871 
675.085600  	76.726541 
677.014416  	76.536424 
678.943232  	76.285234 
680.872048  	76.078144 
682.800864  	75.776294 
684.729680  	74.977401 
686.658496  	74.140622 
688.587312  	73.544202 
690.516128  	72.727850 
692.444944  	71.661576 
694.373760  	69.671649 
696.302576  	66.602189 
698.231392  	62.443269 
700.160208  	57.340033 
702.089024  	54.419666 
704.017840  	56.992813 
705.946656  	63.717869 
707.875472  	70.357872 
709.804288  	73.669251 
711.733104  	72.782490 
713.661920  	70.419785 
715.590736  	72.457187 
717.519552  	77.414713 
719.448368  	80.030934 
721.377184  	80.823988 
723.306000  	81.891204 
725.234816  	82.688317 
727.163632  	83.394829 
729.092448  	83.657853 
731.021264  	83.697460 
732.950080  	83.534218 
734.878896  	83.334764 
736.807712  	83.122322 
738.736528  	82.912178 
740.665344  	82.602008 
742.594160  	82.396994 
744.522976  	82.048567 
746.451792  	81.505799 
748.380608  	80.964558 
750.309424  	80.281648 
752.238240  	79.285356 
754.167056  	78.347357 
756.095872  	77.526579 
758.024688  	76.533809 
759.953504  	75.359504 
761.882320  	74.123959 
763.811136  	72.913417 
765.739952  	71.928872 
767.668768  	70.420903 
769.597584  	67.981785 
771.526400  	64.521692 
773.455216  	59.684353 
775.384032  	55.347752 
777.312848  	55.682958 
779.241664  	61.124252 
781.170480  	66.980893 
783.099296  	69.337482 
785.028112  	68.863711 
786.956928  	69.414088 
788.885744  	74.531977 
790.814560  	80.772644 
792.743376  	84.424118 
794.672192  	85.928471 
796.601008  	86.587556 
798.529824  	87.058802 
800.458640  	87.707264 
802.387456  	88.220536 
804.316272  	88.492535 
806.245088  	88.356396 
808.173904  	88.176898 
810.102720  	87.822054 
812.031536  	87.274825 
813.960352  	86.548224 
815.889168  	85.805600 
817.817984  	84.419435 
819.746800  	81.572682 
821.675616  	75.974592 
823.604432  	70.719638 
825.533248  	71.516843 
827.462064  	75.296921 
829.390880  	76.690258 
831.319696  	73.686403 
833.248512  	70.787691 
835.177328  	73.171863 
837.106144  	77.578220 
839.034960  	80.914789 
840.963776  	82.368490 
842.892592  	82.671816 
844.821408  	81.892641 
846.750224  	79.763183 
848.679040  	77.566653 
850.607856  	77.400116 
852.536672  	78.849153 
854.465488  	80.547223 
856.394304  	81.693408 
858.323120  	82.459096 
860.251936  	83.238974 
862.180752  	83.752881 
864.109568  	83.572548 
866.038384  	83.028566 
867.967200  	82.308493 
869.896016  	81.929557 
871.824832  	82.262510 
873.753648  	83.219946 
875.682464  	84.167472 
877.611280  	84.977224 
879.540096  	85.517119 
881.468912  	85.532533 
883.397728  	85.070909 
885.326544  	84.730031 
887.255360  	84.540062 
889.184176  	84.379769 
891.112992  	84.235382 
893.041808  	84.367103 
894.970624  	84.611300 
896.899440  	84.954584 
898.828256  	85.073947 
900.757072  	85.109717 
902.685888  	85.049961 
904.614704  	84.901758 
906.543520  	84.430835 
908.472336  	83.512458 
910.401152  	82.235602 
912.329968  	81.097545 
914.258784  	80.447731 
916.187600  	80.841789 
918.116416  	82.152608 
920.045232  	83.588948 
921.974048  	84.614768 
923.902864  	85.239192 
925.831680  	85.644799 
927.760496  	86.016312 
929.689312  	86.233417 
931.618128  	86.365107 
933.546944  	86.482096 
935.475760  	86.713609 
937.404576  	87.059345 
939.333392  	87.377762 
941.262208  	87.603429 
943.191024  	87.763269 
945.119840  	87.822545 
947.048656  	87.816570 
948.977472  	87.776975 
950.906288  	87.808359 
952.835104  	87.857668 
954.763920  	87.888944 
956.692736  	87.793100 
958.621552  	87.599128 
960.550368  	87.341221 
962.479184  	87.094955 
964.408000  	86.947186 
966.336816  	86.958745 
968.265632  	87.189477 
970.194448  	87.356006 
972.123264  	87.248121 
974.052080  	86.991651 
975.980896  	86.749554 
977.909712  	86.624435 
979.838528  	86.445670 
981.767344  	86.268723 
983.696160  	86.051892 
985.624976  	85.942018 
987.553792  	85.827969 
989.482608  	85.677128 
991.411424  	85.327417 
993.340240  	85.064493 
995.269056  	84.856587 
997.197872  	84.698477 
999.126688  	84.586291 
1001.055504  	84.474937 
1002.984320  	84.293155 
1004.913136  	84.074510 
1006.841952  	83.783346 
1008.770768  	83.497541 
1010.699584  	83.153482 
1012.628400  	82.786705 
1014.557216  	82.147770 
1016.486032  	81.237469 
1018.414848  	80.406485 
1020.343664  	79.600435 
1022.272480  	78.101774 
1024.201296  	75.597612 
1026.130112  	72.733944 
1028.058928  	71.585285 
1029.987744  	72.635974 
1031.916560  	73.979859 
1033.845376  	74.621847 
1035.774192  	75.311432 
1037.703008  	76.474233 
1039.631824  	78.318632 
1041.560640  	80.619317 
1043.489456  	82.403389 
1045.418272  	83.156202 
1047.347088  	83.299232 
1049.275904  	83.066232 
1051.204720  	82.516650 
1053.133536  	81.651212 
1055.062352  	80.508191 
1056.991168  	79.192811 
1058.919984  	77.867490 
1060.848800  	77.028284 
1062.777616  	77.369197 
1064.706432  	78.247362 
1066.635248  	78.909151 
1068.564064  	79.674232 
1070.492880  	80.875735 
1072.421696  	81.883555 
1074.350512  	82.398453 
1076.279328  	82.495980 
1078.208144  	82.506290 
1080.136960  	82.429219 
1082.065776  	82.271730 
1083.994592  	81.997154 
1085.923408  	81.738415 
1087.852224  	81.322152 
1089.781040  	80.835072 
1091.709856  	80.220308 
1093.638672  	79.560546 
1095.567488  	78.800978 
1097.496304  	78.016179 
1099.425120  	77.169356 
1101.353936  	76.270079 
1103.282752  	75.789258 
1105.211568  	76.410971 
1107.140384  	77.471364 
1109.069200  	78.133199 
1110.998016  	78.560982 
1112.926832  	79.045757 
1114.855648  	79.342957 
1116.784464  	79.224795 
1118.713280  	78.652488 
1120.642096  	77.909976 
1122.570912  	77.348741 
1124.499728  	77.156060 
1126.428544  	77.354400 
1128.357360  	77.750630 
1130.286176  	78.188602 
1132.214992  	78.850439 
1134.143808  	79.470455 
1136.072624  	79.624076 
1138.001440  	79.387794 
1139.930256  	78.956990 
1141.859072  	78.268232 
1143.787888  	77.335524 
1145.716704  	76.535683 
1147.645520  	76.301272 
1149.574336  	76.615403 
1151.503152  	77.183700 
1153.431968  	77.678633 
1155.360784  	78.024656 
1157.289600  	78.154574 
1159.218416  	78.196784 
1161.147232  	78.114490 
1163.076048  	77.852719 
1165.004864  	77.491401 
1166.933680  	77.146322 
1168.862496  	76.851337 
1170.791312  	76.944890 
1172.720128  	77.562307 
1174.648944  	78.821796 
1176.577760  	80.546692 
1178.506576  	82.407992 
1180.435392  	84.031567 
1182.364208  	85.263514 
1184.293024  	85.850344 
1186.221840  	85.846151 
1188.150656  	85.472586 
1190.079472  	84.899386 
1192.008288  	84.042538 
1193.937104  	83.147074 
1195.865920  	82.242916 
1197.794736  	81.385527 
1199.723552  	80.622664 
1201.652368  	79.932716 
1203.581184  	79.226878 
1205.510000  	78.566310 
1207.438816  	77.999415 
1209.367632  	77.558500 
1211.296448  	77.194189 
1213.225264  	76.915905 
1215.154080  	76.633857 
1217.082896  	76.276582 
1219.011712  	75.822921 
1220.940528  	75.313740 
1222.869344  	74.664864 
1224.798160  	73.862537 
1226.726976  	72.989428 
1228.655792  	71.978861 
1230.584608  	70.666919 
1232.513424  	69.056556 
1234.442240  	67.135363 
1236.371056  	64.941807 
1238.299872  	62.908144 
1240.228688  	62.407283 
1242.157504  	64.508767 
1244.086320  	68.087010 
1246.015136  	70.951212 
1247.943952  	72.305529 
1249.872768  	72.545514 
1251.801584  	72.262202 
1253.730400  	71.730563 
1255.659216  	71.107130 
1257.588032  	70.358146 
1259.516848  	69.563994 
1261.445664  	68.820903 
1263.374480  	68.038974 
1265.303296  	67.049158 
1267.232112  	66.025032 
1269.160928  	64.979803 
1271.089744  	64.104745 
1273.018560  	63.372907 
1274.947376  	62.733277 
1276.876192  	62.080685 
1278.805008  	61.457997 
1280.733824  	60.781974 
1282.662640  	60.228560 
1284.591456  	59.744232 
1286.520272  	59.333675 
1288.449088  	59.312734 
1290.377904  	60.174920 
1292.306720  	61.667913 
1294.235536  	63.349992 
1296.164352  	64.814592 
1298.093168  	66.154329 
1300.021984  	67.192080 
1301.950800  	67.301427 
1303.879616  	66.176529 
1305.808432  	65.499747 
1307.737248  	64.008015 
1309.666064  	62.737635 
1311.594880  	61.234564 
1313.523696  	59.692457 
1315.452512  	58.468650 
1317.381328  	57.103849 
1319.310144  	55.411863 
1321.238960  	53.663756 
1323.167776  	52.031096 
1325.096592  	51.002232 
1327.025408  	50.947225 
1328.954224  	52.306684 
1330.883040  	55.407977 
1332.811856  	59.504549 
1334.740672  	62.206053 
1336.669488  	63.064153 
1338.598304  	61.891901 
1340.527120  	60.017778 
1342.455936  	58.114259 
1344.384752  	56.414405 
1346.313568  	54.483965 
1348.242384  	52.776197 
1350.171200  	51.383878 
1352.100016  	50.374563 
1354.028832  	49.802635 
1355.957648  	49.893321 
1357.886464  	50.482368 
1359.815280  	51.159416 
1361.744096  	51.614126 
1363.672912  	51.934144 
1365.601728  	51.645807 
1367.530544  	51.399272 
1369.459360  	51.708462 
1371.388176  	52.070409 
1373.316992  	52.571139 
1375.245808  	53.640214 
1377.174624  	54.493969 
1379.103440  	55.683343 
1381.032256  	57.374094 
1382.961072  	59.297645 
1384.889888  	60.697697 
1386.818704  	62.230048 
1388.747520  	64.103482 
1390.676336  	65.232657 
1392.605152  	65.760089 
1394.533968  	65.886259 
1396.462784  	65.448781 
1398.391600  	64.827943 
1400.320416  	63.937190 
1402.249232  	62.606313 
1404.178048  	61.653034 
1406.106864  	61.324726 
1408.035680  	61.419026 
1409.964496  	61.830760 
1411.893312  	61.589614 
1413.822128  	60.513950 
1415.750944  	58.540783 
1417.679760  	56.722159 
1419.608576  	55.921652 
1421.537392  	55.156376 
1423.466208  	55.478306 
1425.395024  	57.421085 
1427.323840  	59.184822 
1429.252656  	61.844609 
1431.181472  	64.712086 
1433.110288  	66.743718 
1435.039104  	68.551376 
1436.967920  	71.817962 
1438.896736  	73.641966 
1440.825552  	75.246590 
1442.754368  	77.664420 
1444.683184  	79.724695 
1446.612000  	81.740062 
1448.540816  	83.890668 
1450.469632  	84.808725 
1452.398448  	85.218735 
1454.327264  	85.204352 
1456.256080  	85.187472 
1458.184896  	85.783445 
1460.113712  	86.059060 
1462.042528  	85.864420 
1463.971344  	86.060259 
1465.900160  	86.168892 
1467.828976  	86.025957 
1469.757792  	85.850826 
1471.686608  	85.630677 
1473.615424  	85.463154 
1475.544240  	85.467845 
1477.473056  	85.335944 
1479.401872  	84.770293 
1481.330688  	84.246983 
1483.259504  	84.149052 
1485.188320  	83.768727 
1487.117136  	82.859390 
1489.045952  	81.694086 
1490.974768  	82.793982 
1492.903584  	83.583813 
1494.832400  	84.089025 
1496.761216  	84.746794 
1498.690032  	85.196703 
1500.618848  	84.908384 
1502.547664  	84.672017 
1504.476480  	84.899305 
1506.405296  	83.987723 
1508.334112  	83.589487 
1510.262928  	83.721950 
1512.191744  	83.862575 
1514.120560  	83.649039 
1516.049376  	83.263903 
1517.978192  	83.370198 
1519.907008  	83.162233 
1521.835824  	83.260641 
1523.764640  	82.958119 
1525.693456  	82.790255 
1527.622272  	82.751152 
1529.551088  	82.736317 
1531.479904  	81.686514 
1533.408720  	81.303856 
1535.337536  	80.229269 
1537.266352  	79.858494 
1539.195168  	78.780487 
1541.123984  	75.897116 
1543.052800  	73.038980 
1544.981616  	70.210605 
1546.910432  	67.225011 
1548.839248  	63.622343 
1550.768064  	59.940388 
1552.696880  	58.313098 
1554.625696  	58.853856 
1556.554512  	59.740818 
1558.483328  	65.628668 
1560.412144  	75.794538 
1562.340960  	76.223304 
1564.269776  	77.772786 
1566.198592  	79.367224 
1568.127408  	79.730161 
1570.056224  	80.727807 
1571.985040  	80.447668 
1573.913856  	80.260642 
1575.842672  	80.945182 
1577.771488  	81.481983 
1579.700304  	80.724682 
1581.629120  	80.172720 
1583.557936  	79.417649 
1585.486752  	78.712668 
1587.415568  	77.879253 
1589.344384  	76.887949 
1591.273200  	75.809029 
1593.202016  	74.692847 
1595.130832  	73.533353 
1597.059648  	72.380110 
1598.988464  	71.146004 
1600.917280  	69.669202 
1602.846096  	68.144574 
1604.774912  	66.581176 
1606.703728  	64.993885 
1608.632544  	63.560954 
1610.561360  	62.355810 
1612.490176  	60.900434 
1614.418992  	59.572354 
1616.347808  	59.057181 
1618.276624  	58.190679 
1620.205440  	56.985233 
1622.134256  	57.282031 
1624.063072  	59.238764 
1625.991888  	60.292345 
1627.920704  	61.801386 
1629.849520  	62.823539 
1631.778336  	62.543439 
1633.707152  	62.154757 
1635.635968  	60.665914 
1637.564784  	58.270818 
1639.493600  	56.328267 
1641.422416  	55.287516 
1643.351232  	54.729802 
1645.280048  	55.434154 
1647.208864  	59.163436 
1649.137680  	61.923180 
1651.066496  	63.104091 
1652.995312  	67.339758 
1654.924128  	69.340115 
1656.852944  	68.634602 
1658.781760  	68.921230 
1660.710576  	69.576784 
1662.639392  	70.857876 
1664.568208  	72.249247 
1666.497024  	73.374663 
1668.425840  	75.496195 
1670.354656  	78.940711 
1672.283472  	80.524133 
1674.212288  	82.000704 
1676.141104  	83.694916 
1678.069920  	83.771719 
1679.998736  	83.824950 
1681.927552  	84.583485 
1683.856368  	86.046307 
1685.785184  	86.946834 
1687.714000  	86.276768 
1689.642816  	87.176602 
1691.571632  	88.162838 
1693.500448  	88.726537 
1695.429264  	89.302824 
1697.358080  	89.600407 
1699.286896  	90.361377 
1701.215712  	91.267574 
1703.144528  	90.911347 
1705.073344  	91.358371 
1707.002160  	91.996908 
1708.930976  	92.513402 
1710.859792  	92.982827 
1712.788608  	93.468799 
1714.717424  	93.680188 
1716.646240  	94.211667 
1718.575056  	95.067186 
1720.503872  	95.372901 
1722.432688  	95.566709 
1724.361504  	96.046374 
1726.290320  	96.496295 
1728.219136  	96.600348 
1730.147952  	96.525677 
1732.076768  	96.785583 
1734.005584  	97.033292 
1735.934400  	97.257972 
1737.863216  	97.276208 
1739.792032  	97.476268 
1741.720848  	97.319502 
1743.649664  	97.167421 
1745.578480  	97.236808 
1747.507296  	97.240952 
1749.436112  	97.273786 
1751.364928  	97.575048 
1753.293744  	97.786271 
1755.222560  	97.930981 
1757.151376  	97.842453 
1759.080192  	97.945433 
1761.009008  	98.059515 
1762.937824  	98.189849 
1764.866640  	98.255134 
1766.795456  	98.230886 
1768.724272  	98.114480 
1770.653088  	98.213739 
1772.581904  	98.159149 
1774.510720  	98.139701 
1776.439536  	98.121869 
1778.368352  	98.164556 
1780.297168  	98.058216 
1782.225984  	98.120732 
1784.154800  	98.154959 
1786.083616  	98.211212 
1788.012432  	98.202317 
1789.941248  	98.148573 
1791.870064  	98.045763 
1793.798880  	98.066477 
1795.727696  	97.927044 
1797.656512  	98.080452 
1799.585328  	98.077200 
1801.514144  	97.974347 
1803.442960  	98.056999 
1805.371776  	98.118318 
1807.300592  	98.018393 
1809.229408  	97.980962 
1811.158224  	97.851858 
1813.087040  	97.942473 
1815.015856  	98.029716 
1816.944672  	98.016863 
1818.873488  	98.000601 
1820.802304  	97.998634 
1822.731120  	97.941346 
1824.659936  	97.912688 
1826.588752  	97.842535 
1828.517568  	97.758063 
1830.446384  	97.621338 
1832.375200  	97.620265 
1834.304016  	97.545117 
1836.232832  	97.544391 
1838.161648  	97.542642 
1840.090464  	97.596416 
1842.019280  	97.543141 
1843.948096  	97.501459 
1845.876912  	97.328893 
1847.805728  	97.370837 
1849.734544  	97.522700 
1851.663360  	97.621120 
1853.592176  	97.570689 
1855.520992  	97.574023 
1857.449808  	97.494296 
1859.378624  	97.492884 
1861.307440  	97.415664 
1863.236256  	97.379004 
1865.165072  	97.195486 
1867.093888  	96.988261 
1869.022704  	96.819192 
1870.951520  	96.991340 
1872.880336  	97.095766 
1874.809152  	97.383421 
1876.737968  	97.327072 
1878.666784  	97.291405 
1880.595600  	97.125007 
1882.524416  	97.129279 
1884.453232  	97.037720 
1886.382048  	97.054259 
1888.310864  	96.890688 
1890.239680  	96.872291 
1892.168496  	96.952287 
1894.097312  	96.976451 
1896.026128  	96.905989 
1897.954944  	97.040112 
